Date,2025/05/05,
Time,18:00:00,
Memo,EKO 711,
Sensor,MS-711,
Exposure Time(msec),5000,
Sensor Temp.(deg),24.6,
Power(V),5.9,
Wavelength(nm),Irradiance(W/m2/um),
300.00,0.00,
301.00,0.01,
302.00,0.01,
303.00,0.00,
304.00,0.00,
305.00,0.01,
306.00,0.00,
307.00,0.00,
308.00,0.01,
309.00,0.01,
310.00,0.00,
311.00,0.00,
312.00,0.00,
313.00,-0.00,
314.00,0.00,
315.00,0.00,
316.00,0.00,
317.00,0.00,
318.00,0.00,
319.00,-0.00,
320.00,-0.00,
321.00,0.00,
322.00,0.00,
323.00,0.00,
324.00,0.01,
325.00,0.01,
326.00,0.01,
327.00,0.01,
328.00,0.01,
329.00,0.01,
330.00,0.01,
331.00,0.01,
332.00,0.01,
333.00,0.01,
334.00,0.02,
335.00,0.02,
336.00,0.02,
337.00,0.02,
338.00,0.02,
339.00,0.02,
340.00,0.02,
341.00,0.02,
342.00,0.02,
343.00,0.02,
344.00,0.02,
345.00,0.02,
346.00,0.02,
347.00,0.03,
348.00,0.02,
349.00,0.02,
350.00,0.02,
351.00,0.02,
352.00,0.02,
353.00,0.02,
354.00,0.02,
355.00,0.02,
356.00,0.03,
357.00,0.02,
358.00,0.02,
359.00,0.02,
360.00,0.02,
361.00,0.02,
362.00,0.02,
363.00,0.03,
364.00,0.03,
365.00,0.03,
366.00,0.03,
367.00,0.03,
368.00,0.03,
369.00,0.03,
370.00,0.03,
371.00,0.03,
372.00,0.03,
373.00,0.03,
374.00,0.02,
375.00,0.03,
376.00,0.03,
377.00,0.02,
378.00,0.03,
379.00,0.03,
380.00,0.03,
381.00,0.03,
382.00,0.03,
383.00,0.03,
384.00,0.02,
385.00,0.02,
386.00,0.03,
387.00,0.03,
388.00,0.03,
389.00,0.03,
390.00,0.03,
391.00,0.03,
392.00,0.03,
393.00,0.02,
394.00,0.02,
395.00,0.02,
396.00,0.02,
397.00,0.02,
398.00,0.03,
399.00,0.03,
400.00,0.03,
401.00,0.04,
402.00,0.04,
403.00,0.04,
404.00,0.04,
405.00,0.04,
406.00,0.03,
407.00,0.03,
408.00,0.04,
409.00,0.04,
410.00,0.04,
411.00,0.04,
412.00,0.04,
413.00,0.04,
414.00,0.04,
415.00,0.04,
416.00,0.04,
417.00,0.04,
418.00,0.04,
419.00,0.04,
420.00,0.04,
421.00,0.04,
422.00,0.04,
423.00,0.04,
424.00,0.04,
425.00,0.04,
426.00,0.04,
427.00,0.04,
428.00,0.04,
429.00,0.03,
430.00,0.03,
431.00,0.03,
432.00,0.03,
433.00,0.03,
434.00,0.04,
435.00,0.04,
436.00,0.03,
437.00,0.04,
438.00,0.04,
439.00,0.03,
440.00,0.04,
441.00,0.04,
442.00,0.04,
443.00,0.04,
444.00,0.05,
445.00,0.04,
446.00,0.04,
447.00,0.05,
448.00,0.05,
449.00,0.05,
450.00,0.05,
451.00,0.05,
452.00,0.04,
453.00,0.04,
454.00,0.04,
455.00,0.04,
456.00,0.04,
457.00,0.05,
458.00,0.04,
459.00,0.05,
460.00,0.06,
461.00,0.05,
462.00,0.04,
463.00,0.05,
464.00,0.04,
465.00,0.03,
466.00,0.04,
467.00,0.04,
468.00,0.03,
469.00,0.03,
470.00,0.04,
471.00,0.03,
472.00,0.04,
473.00,0.06,
474.00,0.05,
475.00,0.04,
476.00,0.05,
477.00,0.04,
478.00,0.02,
479.00,0.03,
480.00,0.03,
481.00,0.03,
482.00,0.04,
483.00,0.05,
484.00,0.04,
485.00,0.05,
486.00,0.05,
487.00,0.04,
488.00,0.03,
489.00,0.03,
490.00,0.03,
491.00,0.02,
492.00,0.03,
493.00,0.04,
494.00,0.03,
495.00,0.04,
496.00,0.04,
497.00,0.04,
498.00,0.03,
499.00,0.04,
500.00,0.04,
501.00,0.04,
502.00,0.04,
503.00,0.04,
504.00,0.04,
505.00,0.03,
506.00,0.03,
507.00,0.03,
508.00,0.03,
509.00,0.03,
510.00,0.04,
511.00,0.04,
512.00,0.05,
513.00,0.04,
514.00,0.04,
515.00,0.04,
516.00,0.03,
517.00,0.02,
518.00,0.01,
519.00,0.01,
520.00,0.01,
521.00,0.01,
522.00,0.02,
523.00,0.03,
524.00,0.03,
525.00,0.03,
526.00,0.04,
527.00,0.04,
528.00,0.04,
529.00,0.04,
530.00,0.04,
531.00,0.03,
532.00,0.02,
533.00,0.03,
534.00,0.03,
535.00,0.03,
536.00,0.03,
537.00,0.03,
538.00,0.03,
539.00,0.03,
540.00,0.02,
541.00,0.02,
542.00,0.02,
543.00,0.02,
544.00,0.01,
545.00,0.01,
546.00,0.02,
547.00,0.03,
548.00,0.03,
549.00,0.03,
550.00,0.03,
551.00,0.01,
552.00,0.01,
553.00,0.01,
554.00,0.01,
555.00,0.01,
556.00,0.02,
557.00,0.03,
558.00,0.03,
559.00,0.04,
560.00,0.04,
561.00,0.04,
562.00,0.03,
563.00,0.03,
564.00,0.02,
565.00,0.02,
566.00,0.01,
567.00,0.00,
568.00,0.01,
569.00,0.01,
570.00,0.01,
571.00,0.02,
572.00,0.03,
573.00,0.02,
574.00,0.02,
575.00,0.03,
576.00,0.02,
577.00,0.02,
578.00,0.03,
579.00,0.02,
580.00,-0.00,
581.00,-0.00,
582.00,-0.01,
583.00,-0.01,
584.00,-0.00,
585.00,0.01,
586.00,-0.00,
587.00,0.00,
588.00,0.01,
589.00,0.00,
590.00,-0.00,
591.00,0.02,
592.00,0.01,
593.00,0.01,
594.00,0.02,
595.00,0.02,
596.00,0.02,
597.00,0.02,
598.00,0.02,
599.00,0.01,
600.00,0.02,
601.00,0.03,
602.00,0.02,
603.00,0.01,
604.00,0.02,
605.00,0.01,
606.00,0.00,
607.00,0.01,
608.00,0.01,
609.00,0.00,
610.00,0.01,
611.00,0.01,
612.00,0.00,
613.00,0.01,
614.00,0.01,
615.00,-0.00,
616.00,-0.00,
617.00,0.00,
618.00,-0.01,
619.00,-0.01,
620.00,-0.01,
621.00,-0.00,
622.00,-0.01,
623.00,0.01,
624.00,0.01,
625.00,0.01,
626.00,0.01,
627.00,0.02,
628.00,0.01,
629.00,0.01,
630.00,0.02,
631.00,0.01,
632.00,0.00,
633.00,0.00,
634.00,-0.00,
635.00,-0.01,
636.00,0.00,
637.00,-0.00,
638.00,-0.01,
639.00,-0.00,
640.00,-0.00,
641.00,-0.01,
642.00,-0.00,
643.00,0.01,
644.00,0.01,
645.00,0.01,
646.00,0.02,
647.00,0.02,
648.00,0.01,
649.00,0.02,
650.00,0.02,
651.00,0.01,
652.00,0.01,
653.00,0.01,
654.00,0.01,
655.00,0.01,
656.00,0.01,
657.00,0.01,
658.00,0.02,
659.00,0.03,
660.00,0.03,
661.00,0.02,
662.00,0.03,
663.00,0.02,
664.00,0.01,
665.00,0.01,
666.00,0.01,
667.00,0.00,
668.00,0.01,
669.00,0.00,
670.00,0.00,
671.00,0.01,
672.00,0.02,
673.00,0.01,
674.00,0.02,
675.00,0.02,
676.00,0.01,
677.00,0.01,
678.00,0.01,
679.00,0.01,
680.00,0.01,
681.00,0.01,
682.00,0.02,
683.00,0.01,
684.00,0.02,
685.00,0.02,
686.00,0.02,
687.00,0.02,
688.00,0.03,
689.00,0.02,
690.00,0.02,
691.00,0.03,
692.00,0.02,
693.00,0.02,
694.00,0.03,
695.00,0.02,
696.00,0.01,
697.00,0.01,
698.00,-0.00,
699.00,-0.02,
700.00,-0.01,
701.00,-0.01,
702.00,-0.01,
703.00,-0.00,
704.00,0.02,
705.00,0.02,
706.00,0.04,
707.00,0.05,
708.00,0.06,
709.00,0.05,
710.00,0.06,
711.00,0.03,
712.00,0.01,
713.00,0.02,
714.00,0.02,
715.00,0.02,
716.00,0.02,
717.00,0.01,
718.00,0.01,
719.00,0.02,
720.00,0.00,
721.00,-0.01,
722.00,0.01,
723.00,0.02,
724.00,0.00,
725.00,0.03,
726.00,0.04,
727.00,0.02,
728.00,0.02,
729.00,0.02,
730.00,-0.00,
731.00,0.00,
732.00,0.02,
733.00,0.01,
734.00,0.02,
735.00,0.04,
736.00,0.02,
737.00,0.02,
738.00,0.03,
739.00,0.01,
740.00,0.00,
741.00,0.03,
742.00,0.03,
743.00,0.03,
744.00,0.04,
745.00,0.07,
746.00,0.04,
747.00,0.04,
748.00,0.04,
749.00,0.02,
750.00,0.02,
751.00,0.04,
752.00,0.03,
753.00,0.05,
754.00,0.05,
755.00,0.03,
756.00,0.02,
757.00,0.02,
758.00,0.00,
759.00,-0.02,
760.00,-0.03,
761.00,-0.02,
762.00,-0.03,
763.00,-0.00,
764.00,0.02,
765.00,0.04,
766.00,0.05,
767.00,0.04,
768.00,-0.00,
769.00,-0.01,
770.00,-0.01,
771.00,-0.02,
772.00,-0.02,
773.00,-0.00,
774.00,-0.01,
775.00,-0.00,
776.00,0.00,
777.00,0.03,
778.00,0.03,
779.00,0.03,
780.00,0.03,
781.00,0.03,
782.00,0.03,
783.00,0.02,
784.00,0.03,
785.00,0.01,
786.00,0.01,
787.00,0.01,
788.00,0.02,
789.00,0.02,
790.00,0.03,
791.00,0.03,
792.00,0.03,
793.00,0.04,
794.00,0.03,
795.00,0.03,
796.00,0.04,
797.00,0.04,
798.00,0.04,
799.00,0.06,
800.00,0.04,
801.00,0.01,
802.00,-0.01,
803.00,-0.04,
804.00,-0.04,
805.00,-0.02,
806.00,-0.02,
807.00,-0.02,
808.00,-0.02,
809.00,-0.03,
810.00,-0.04,
811.00,-0.03,
812.00,-0.03,
813.00,-0.01,
814.00,-0.03,
815.00,-0.03,
816.00,0.00,
817.00,0.05,
818.00,0.06,
819.00,0.07,
820.00,0.09,
821.00,0.08,
822.00,0.02,
823.00,0.02,
824.00,0.02,
825.00,-0.02,
826.00,-0.03,
827.00,-0.02,
828.00,-0.02,
829.00,-0.01,
830.00,0.01,
831.00,-0.01,
832.00,-0.00,
833.00,0.01,
834.00,-0.00,
835.00,0.00,
836.00,0.02,
837.00,0.01,
838.00,0.00,
839.00,-0.01,
840.00,-0.00,
841.00,-0.01,
842.00,0.00,
843.00,-0.01,
844.00,-0.01,
845.00,0.00,
846.00,0.01,
847.00,0.00,
848.00,0.02,
849.00,0.03,
850.00,0.01,
851.00,0.00,
852.00,0.00,
853.00,-0.00,
854.00,-0.00,
855.00,-0.00,
856.00,-0.01,
857.00,-0.01,
858.00,-0.01,
859.00,-0.00,
860.00,0.01,
861.00,0.02,
862.00,0.02,
863.00,0.02,
864.00,0.03,
865.00,0.03,
866.00,0.03,
867.00,0.02,
868.00,0.01,
869.00,-0.01,
870.00,-0.01,
871.00,-0.00,
872.00,0.00,
873.00,0.01,
874.00,0.01,
875.00,0.01,
876.00,0.01,
877.00,0.01,
878.00,0.00,
879.00,0.00,
880.00,0.01,
881.00,0.01,
882.00,0.01,
883.00,0.02,
884.00,0.02,
885.00,0.02,
886.00,0.02,
887.00,0.03,
888.00,0.02,
889.00,0.02,
890.00,0.02,
891.00,0.02,
892.00,0.01,
893.00,0.01,
894.00,-0.00,
895.00,0.00,
896.00,0.00,
897.00,0.01,
898.00,0.01,
899.00,0.02,
900.00,0.01,
901.00,0.01,
902.00,0.01,
903.00,0.01,
904.00,0.01,
905.00,0.01,
906.00,0.01,
907.00,0.01,
908.00,0.01,
909.00,0.00,
910.00,0.00,
911.00,-0.00,
912.00,-0.01,
913.00,-0.01,
914.00,0.00,
915.00,0.00,
916.00,0.00,
917.00,0.00,
918.00,0.00,
919.00,0.00,
920.00,0.01,
921.00,0.01,
922.00,0.00,
923.00,0.01,
924.00,0.00,
925.00,0.00,
926.00,0.01,
927.00,0.02,
928.00,0.02,
929.00,0.02,
930.00,0.01,
931.00,0.01,
932.00,0.01,
933.00,0.00,
934.00,0.00,
935.00,0.02,
936.00,0.02,
937.00,0.01,
938.00,0.02,
939.00,0.02,
940.00,0.01,
941.00,0.01,
942.00,0.01,
943.00,-0.00,
944.00,0.01,
945.00,0.01,
946.00,-0.00,
947.00,0.00,
948.00,0.01,
949.00,-0.01,
950.00,0.01,
951.00,0.01,
952.00,0.01,
953.00,0.02,
954.00,0.03,
955.00,0.02,
956.00,0.02,
957.00,0.03,
958.00,0.01,
959.00,0.01,
960.00,0.01,
961.00,0.01,
962.00,0.01,
963.00,0.03,
964.00,0.02,
965.00,0.03,
966.00,0.02,
967.00,0.00,
968.00,0.00,
969.00,0.01,
970.00,0.00,
971.00,0.00,
972.00,0.01,
973.00,0.00,
974.00,0.00,
975.00,0.01,
976.00,0.01,
977.00,0.00,
978.00,0.01,
979.00,-0.00,
980.00,-0.02,
981.00,-0.02,
982.00,-0.03,
983.00,-0.03,
984.00,-0.01,
985.00,-0.01,
986.00,0.00,
987.00,0.01,
988.00,0.01,
989.00,0.00,
990.00,0.01,
991.00,0.00,
992.00,-0.00,
993.00,-0.00,
994.00,-0.00,
995.00,-0.01,
996.00,0.00,
997.00,0.00,
998.00,-0.00,
999.00,0.00,
1000.00,0.01,
1001.00,-0.00,
1002.00,0.00,
1003.00,0.00,
1004.00,0.00,
1005.00,0.00,
1006.00,0.01,
1007.00,0.01,
1008.00,0.01,
1009.00,0.02,
1010.00,0.02,
1011.00,0.02,
1012.00,0.02,
1013.00,0.02,
1014.00,0.01,
1015.00,0.02,
1016.00,0.01,
1017.00,0.02,
1018.00,0.04,
1019.00,0.03,
1020.00,0.02,
1021.00,0.02,
1022.00,-0.01,
1023.00,-0.00,
1024.00,-0.01,
1025.00,0.01,
1026.00,0.01,
1027.00,0.01,
1028.00,-0.01,
1029.00,-0.01,
1030.00,-0.01,
1031.00,-0.02,
1032.00,0.00,
1033.00,0.01,
1034.00,0.02,
1035.00,0.01,
1036.00,0.03,
1037.00,0.01,
1038.00,0.01,
1039.00,-0.01,
1040.00,-0.03,
1041.00,-0.02,
1042.00,0.00,
1043.00,-0.00,
1044.00,0.01,
1045.00,0.02,
1046.00,-0.00,
1047.00,-0.01,
1048.00,0.00,
1049.00,-0.01,
1050.00,-0.03,
1051.00,-0.03,
1052.00,-0.04,
1053.00,-0.05,
1054.00,-0.03,
1055.00,-0.02,
1056.00,-0.01,
1057.00,-0.01,
1058.00,0.01,
1059.00,0.04,
1060.00,0.03,
1061.00,0.06,
1062.00,0.06,
1063.00,0.07,
1064.00,0.06,
1065.00,0.07,
1066.00,0.07,
1067.00,0.05,
1068.00,0.00,
1069.00,0.02,
1070.00,0.04,
1071.00,0.02,
1072.00,0.06,
1073.00,0.07,
1074.00,0.01,
1075.00,0.04,
1076.00,0.03,
1077.00,-0.01,
1078.00,0.02,
1079.00,-0.00,
1080.00,-0.05,
1081.00,-0.03,
1082.00,0.03,
1083.00,0.06,
1084.00,0.11,
1085.00,0.09,
1086.00,0.05,
1087.00,0.05,
1088.00,0.02,
1089.00,0.04,
1090.00,0.08,
1091.00,0.08,
1092.00,0.05,
1093.00,0.04,
1094.00,0.07,
1095.00,0.06,
1096.00,0.08,
1097.00,0.10,
1098.00,0.06,
1099.00,-0.04,
1100.00,0.03,
