Date,2025/04/30,
Time,18:00:00,
Memo,EKO 711,
Sensor,MS-711,
Exposure Time(msec),5000,
Sensor Temp.(deg),24.6,
Power(V),5.9,
Wavelength(nm),Irradiance(W/m2/um),
300.00,0.01,
301.00,0.01,
302.00,0.00,
303.00,0.00,
304.00,0.00,
305.00,0.00,
306.00,-0.00,
307.00,0.00,
308.00,0.00,
309.00,0.00,
310.00,0.01,
311.00,0.01,
312.00,0.00,
313.00,0.00,
314.00,-0.00,
315.00,-0.01,
316.00,-0.00,
317.00,-0.01,
318.00,-0.00,
319.00,-0.00,
320.00,0.00,
321.00,0.00,
322.00,0.00,
323.00,0.01,
324.00,0.01,
325.00,0.00,
326.00,0.00,
327.00,0.01,
328.00,0.01,
329.00,0.01,
330.00,0.01,
331.00,0.01,
332.00,0.01,
333.00,0.01,
334.00,0.01,
335.00,0.01,
336.00,0.01,
337.00,0.01,
338.00,0.00,
339.00,0.00,
340.00,0.01,
341.00,0.00,
342.00,0.00,
343.00,0.01,
344.00,0.01,
345.00,0.01,
346.00,0.01,
347.00,0.01,
348.00,0.01,
349.00,0.01,
350.00,0.01,
351.00,0.01,
352.00,0.01,
353.00,0.01,
354.00,0.01,
355.00,0.01,
356.00,0.01,
357.00,0.01,
358.00,0.01,
359.00,0.01,
360.00,0.01,
361.00,0.00,
362.00,0.00,
363.00,0.00,
364.00,0.01,
365.00,0.00,
366.00,0.00,
367.00,0.01,
368.00,0.01,
369.00,0.01,
370.00,0.01,
371.00,0.01,
372.00,0.01,
373.00,0.01,
374.00,0.01,
375.00,0.01,
376.00,0.01,
377.00,0.01,
378.00,0.01,
379.00,0.01,
380.00,0.01,
381.00,0.01,
382.00,0.01,
383.00,0.01,
384.00,0.01,
385.00,0.01,
386.00,0.01,
387.00,0.01,
388.00,0.01,
389.00,0.01,
390.00,0.01,
391.00,0.01,
392.00,0.01,
393.00,0.01,
394.00,0.01,
395.00,0.01,
396.00,0.01,
397.00,0.01,
398.00,0.01,
399.00,0.01,
400.00,0.01,
401.00,0.02,
402.00,0.02,
403.00,0.02,
404.00,0.02,
405.00,0.02,
406.00,0.01,
407.00,0.02,
408.00,0.01,
409.00,0.01,
410.00,0.01,
411.00,0.01,
412.00,0.01,
413.00,0.01,
414.00,0.01,
415.00,0.01,
416.00,0.02,
417.00,0.02,
418.00,0.02,
419.00,0.02,
420.00,0.02,
421.00,0.02,
422.00,0.02,
423.00,0.01,
424.00,0.01,
425.00,0.01,
426.00,0.01,
427.00,0.02,
428.00,0.02,
429.00,0.02,
430.00,0.02,
431.00,0.02,
432.00,0.02,
433.00,0.01,
434.00,0.02,
435.00,0.01,
436.00,0.01,
437.00,0.02,
438.00,0.01,
439.00,0.01,
440.00,0.01,
441.00,0.01,
442.00,0.01,
443.00,0.01,
444.00,0.01,
445.00,0.01,
446.00,0.01,
447.00,0.02,
448.00,0.02,
449.00,0.02,
450.00,0.03,
451.00,0.02,
452.00,0.02,
453.00,0.01,
454.00,0.02,
455.00,0.02,
456.00,0.02,
457.00,0.02,
458.00,0.03,
459.00,0.03,
460.00,0.03,
461.00,0.04,
462.00,0.04,
463.00,0.04,
464.00,0.04,
465.00,0.04,
466.00,0.03,
467.00,0.03,
468.00,0.02,
469.00,0.01,
470.00,0.01,
471.00,0.02,
472.00,0.02,
473.00,0.01,
474.00,0.02,
475.00,0.01,
476.00,0.00,
477.00,0.01,
478.00,0.02,
479.00,0.02,
480.00,0.02,
481.00,0.03,
482.00,0.03,
483.00,0.02,
484.00,0.03,
485.00,0.02,
486.00,0.01,
487.00,0.01,
488.00,0.02,
489.00,0.01,
490.00,0.01,
491.00,0.01,
492.00,0.01,
493.00,0.01,
494.00,0.02,
495.00,0.03,
496.00,0.02,
497.00,0.02,
498.00,0.02,
499.00,0.01,
500.00,0.01,
501.00,0.01,
502.00,0.01,
503.00,0.00,
504.00,0.01,
505.00,0.01,
506.00,0.01,
507.00,0.01,
508.00,0.02,
509.00,0.01,
510.00,0.02,
511.00,0.02,
512.00,0.02,
513.00,0.01,
514.00,0.02,
515.00,0.02,
516.00,0.02,
517.00,0.01,
518.00,0.02,
519.00,0.01,
520.00,-0.00,
521.00,0.01,
522.00,0.01,
523.00,0.01,
524.00,0.02,
525.00,0.03,
526.00,0.02,
527.00,0.01,
528.00,0.01,
529.00,0.00,
530.00,-0.01,
531.00,-0.00,
532.00,0.01,
533.00,0.00,
534.00,0.01,
535.00,0.01,
536.00,0.01,
537.00,0.01,
538.00,0.01,
539.00,0.01,
540.00,0.01,
541.00,0.01,
542.00,0.02,
543.00,0.02,
544.00,0.02,
545.00,0.02,
546.00,0.02,
547.00,0.01,
548.00,0.02,
549.00,0.02,
550.00,0.02,
551.00,0.02,
552.00,0.03,
553.00,0.02,
554.00,-0.00,
555.00,0.00,
556.00,0.01,
557.00,0.00,
558.00,0.01,
559.00,0.00,
560.00,-0.00,
561.00,0.00,
562.00,0.00,
563.00,-0.00,
564.00,0.01,
565.00,0.02,
566.00,0.01,
567.00,0.01,
568.00,0.02,
569.00,0.02,
570.00,0.01,
571.00,0.02,
572.00,0.02,
573.00,0.00,
574.00,0.01,
575.00,0.01,
576.00,0.00,
577.00,0.01,
578.00,0.01,
579.00,0.01,
580.00,0.01,
581.00,0.02,
582.00,0.01,
583.00,0.01,
584.00,0.00,
585.00,0.01,
586.00,0.01,
587.00,-0.00,
588.00,-0.00,
589.00,0.00,
590.00,-0.01,
591.00,-0.01,
592.00,0.02,
593.00,0.02,
594.00,0.02,
595.00,0.04,
596.00,0.03,
597.00,0.01,
598.00,0.01,
599.00,0.01,
600.00,-0.00,
601.00,0.00,
602.00,0.00,
603.00,-0.01,
604.00,-0.02,
605.00,-0.01,
606.00,-0.00,
607.00,-0.01,
608.00,0.01,
609.00,0.02,
610.00,0.00,
611.00,0.01,
612.00,0.01,
613.00,-0.00,
614.00,0.00,
615.00,0.01,
616.00,0.01,
617.00,0.01,
618.00,0.02,
619.00,0.02,
620.00,0.02,
621.00,0.01,
622.00,0.02,
623.00,0.01,
624.00,-0.00,
625.00,-0.00,
626.00,0.00,
627.00,0.00,
628.00,0.00,
629.00,0.01,
630.00,0.01,
631.00,0.01,
632.00,0.03,
633.00,0.03,
634.00,0.03,
635.00,0.04,
636.00,0.03,
637.00,0.02,
638.00,0.02,
639.00,0.02,
640.00,0.02,
641.00,0.03,
642.00,0.04,
643.00,0.03,
644.00,0.04,
645.00,0.04,
646.00,0.03,
647.00,0.01,
648.00,0.02,
649.00,0.00,
650.00,-0.01,
651.00,-0.00,
652.00,0.00,
653.00,-0.00,
654.00,0.01,
655.00,0.01,
656.00,0.00,
657.00,0.01,
658.00,0.01,
659.00,0.00,
660.00,0.01,
661.00,0.01,
662.00,0.01,
663.00,0.01,
664.00,0.02,
665.00,0.03,
666.00,0.02,
667.00,0.02,
668.00,0.02,
669.00,0.02,
670.00,0.01,
671.00,0.01,
672.00,0.02,
673.00,0.02,
674.00,0.02,
675.00,0.04,
676.00,0.03,
677.00,0.02,
678.00,0.03,
679.00,0.01,
680.00,0.00,
681.00,0.02,
682.00,0.02,
683.00,0.01,
684.00,0.01,
685.00,0.00,
686.00,-0.01,
687.00,-0.00,
688.00,0.00,
689.00,-0.00,
690.00,0.01,
691.00,0.02,
692.00,0.02,
693.00,0.02,
694.00,0.03,
695.00,0.03,
696.00,0.02,
697.00,0.04,
698.00,0.04,
699.00,0.02,
700.00,0.02,
701.00,0.02,
702.00,0.02,
703.00,0.02,
704.00,0.03,
705.00,0.02,
706.00,0.02,
707.00,0.02,
708.00,0.04,
709.00,0.03,
710.00,0.03,
711.00,0.06,
712.00,0.05,
713.00,0.03,
714.00,0.06,
715.00,0.05,
716.00,0.02,
717.00,0.02,
718.00,0.02,
719.00,0.01,
720.00,0.02,
721.00,0.03,
722.00,0.02,
723.00,0.01,
724.00,0.02,
725.00,0.02,
726.00,0.01,
727.00,0.03,
728.00,0.04,
729.00,0.02,
730.00,0.03,
731.00,0.04,
732.00,0.02,
733.00,0.02,
734.00,0.02,
735.00,0.00,
736.00,-0.01,
737.00,0.00,
738.00,0.00,
739.00,0.00,
740.00,0.02,
741.00,0.02,
742.00,0.03,
743.00,0.03,
744.00,0.05,
745.00,0.03,
746.00,0.03,
747.00,0.03,
748.00,0.02,
749.00,0.01,
750.00,0.04,
751.00,0.04,
752.00,0.03,
753.00,0.04,
754.00,0.04,
755.00,0.04,
756.00,0.04,
757.00,0.05,
758.00,0.04,
759.00,0.02,
760.00,0.02,
761.00,0.02,
762.00,0.01,
763.00,0.04,
764.00,0.02,
765.00,-0.00,
766.00,0.01,
767.00,0.02,
768.00,-0.00,
769.00,0.03,
770.00,0.04,
771.00,0.02,
772.00,0.04,
773.00,0.04,
774.00,0.03,
775.00,0.02,
776.00,0.04,
777.00,0.02,
778.00,0.00,
779.00,0.02,
780.00,0.01,
781.00,-0.00,
782.00,0.02,
783.00,0.04,
784.00,0.01,
785.00,0.05,
786.00,0.07,
787.00,0.04,
788.00,0.04,
789.00,0.06,
790.00,0.04,
791.00,0.03,
792.00,0.05,
793.00,0.05,
794.00,0.03,
795.00,0.04,
796.00,0.05,
797.00,0.04,
798.00,0.04,
799.00,0.07,
800.00,0.05,
801.00,0.04,
802.00,0.05,
803.00,0.04,
804.00,0.03,
805.00,0.06,
806.00,0.04,
807.00,0.03,
808.00,0.04,
809.00,0.02,
810.00,-0.00,
811.00,0.03,
812.00,0.03,
813.00,0.02,
814.00,0.04,
815.00,0.05,
816.00,0.01,
817.00,0.03,
818.00,0.02,
819.00,0.01,
820.00,0.03,
821.00,0.07,
822.00,0.06,
823.00,0.04,
824.00,0.04,
825.00,0.03,
826.00,-0.00,
827.00,-0.01,
828.00,0.03,
829.00,0.00,
830.00,0.01,
831.00,0.02,
832.00,0.02,
833.00,0.04,
834.00,0.06,
835.00,0.04,
836.00,0.03,
837.00,0.03,
838.00,0.03,
839.00,0.03,
840.00,0.05,
841.00,0.07,
842.00,0.04,
843.00,0.05,
844.00,0.06,
845.00,0.04,
846.00,0.03,
847.00,0.05,
848.00,0.04,
849.00,0.02,
850.00,0.04,
851.00,0.02,
852.00,0.01,
853.00,0.01,
854.00,-0.00,
855.00,-0.02,
856.00,0.00,
857.00,-0.00,
858.00,-0.01,
859.00,0.01,
860.00,0.02,
861.00,0.01,
862.00,0.03,
863.00,0.03,
864.00,0.02,
865.00,0.02,
866.00,0.03,
867.00,0.02,
868.00,0.02,
869.00,0.03,
870.00,0.04,
871.00,0.04,
872.00,0.05,
873.00,0.04,
874.00,0.02,
875.00,0.02,
876.00,0.02,
877.00,0.02,
878.00,0.02,
879.00,0.03,
880.00,0.02,
881.00,0.03,
882.00,0.04,
883.00,0.03,
884.00,0.03,
885.00,0.03,
886.00,0.02,
887.00,0.02,
888.00,0.03,
889.00,0.02,
890.00,0.02,
891.00,0.04,
892.00,0.03,
893.00,0.02,
894.00,0.03,
895.00,0.03,
896.00,0.01,
897.00,0.01,
898.00,0.02,
899.00,0.01,
900.00,-0.00,
901.00,0.00,
902.00,-0.00,
903.00,-0.00,
904.00,0.01,
905.00,0.02,
906.00,0.02,
907.00,0.02,
908.00,0.02,
909.00,0.00,
910.00,0.00,
911.00,0.01,
912.00,-0.01,
913.00,-0.00,
914.00,0.01,
915.00,-0.00,
916.00,0.01,
917.00,0.02,
918.00,0.01,
919.00,0.01,
920.00,0.02,
921.00,0.01,
922.00,0.02,
923.00,0.03,
924.00,0.02,
925.00,0.01,
926.00,0.01,
927.00,0.00,
928.00,-0.01,
929.00,0.00,
930.00,-0.00,
931.00,-0.01,
932.00,-0.00,
933.00,-0.01,
934.00,-0.02,
935.00,-0.01,
936.00,0.00,
937.00,-0.00,
938.00,0.00,
939.00,0.01,
940.00,0.00,
941.00,-0.01,
942.00,-0.00,
943.00,-0.01,
944.00,-0.01,
945.00,0.00,
946.00,0.01,
947.00,-0.00,
948.00,0.01,
949.00,0.01,
950.00,-0.00,
951.00,0.01,
952.00,0.02,
953.00,0.01,
954.00,0.01,
955.00,0.02,
956.00,0.01,
957.00,0.02,
958.00,0.02,
959.00,0.01,
960.00,0.01,
961.00,0.01,
962.00,0.00,
963.00,0.01,
964.00,0.01,
965.00,0.01,
966.00,0.00,
967.00,0.02,
968.00,0.01,
969.00,0.01,
970.00,0.02,
971.00,0.02,
972.00,0.00,
973.00,0.00,
974.00,-0.01,
975.00,-0.00,
976.00,-0.00,
977.00,0.00,
978.00,-0.00,
979.00,0.00,
980.00,-0.01,
981.00,-0.00,
982.00,-0.00,
983.00,0.01,
984.00,0.00,
985.00,0.00,
986.00,0.00,
987.00,-0.00,
988.00,-0.00,
989.00,0.01,
990.00,0.00,
991.00,0.01,
992.00,0.01,
993.00,-0.00,
994.00,-0.01,
995.00,0.00,
996.00,-0.00,
997.00,0.00,
998.00,0.03,
999.00,0.02,
1000.00,0.02,
1001.00,0.04,
1002.00,0.04,
1003.00,0.04,
1004.00,0.04,
1005.00,0.02,
1006.00,0.01,
1007.00,0.01,
1008.00,0.01,
1009.00,0.00,
1010.00,0.02,
1011.00,0.01,
1012.00,0.01,
1013.00,0.01,
1014.00,0.01,
1015.00,0.01,
1016.00,0.01,
1017.00,0.00,
1018.00,0.01,
1019.00,0.01,
1020.00,0.02,
1021.00,0.03,
1022.00,0.01,
1023.00,0.01,
1024.00,0.01,
1025.00,-0.02,
1026.00,-0.00,
1027.00,0.01,
1028.00,0.01,
1029.00,0.03,
1030.00,0.05,
1031.00,0.03,
1032.00,0.03,
1033.00,0.03,
1034.00,-0.00,
1035.00,0.00,
1036.00,-0.00,
1037.00,-0.00,
1038.00,0.00,
1039.00,0.01,
1040.00,-0.01,
1041.00,0.02,
1042.00,0.02,
1043.00,0.00,
1044.00,0.00,
1045.00,0.02,
1046.00,0.01,
1047.00,0.02,
1048.00,0.04,
1049.00,0.01,
1050.00,-0.01,
1051.00,0.00,
1052.00,-0.03,
1053.00,-0.01,
1054.00,0.04,
1055.00,0.03,
1056.00,-0.00,
1057.00,0.01,
1058.00,-0.01,
1059.00,-0.05,
1060.00,-0.04,
1061.00,-0.04,
1062.00,-0.06,
1063.00,-0.03,
1064.00,-0.01,
1065.00,-0.01,
1066.00,-0.01,
1067.00,0.02,
1068.00,-0.01,
1069.00,0.01,
1070.00,0.03,
1071.00,0.04,
1072.00,0.07,
1073.00,0.06,
1074.00,-0.02,
1075.00,-0.02,
1076.00,-0.02,
1077.00,-0.07,
1078.00,-0.04,
1079.00,0.01,
1080.00,0.00,
1081.00,0.03,
1082.00,0.08,
1083.00,0.06,
1084.00,0.04,
1085.00,0.05,
1086.00,0.01,
1087.00,-0.02,
1088.00,0.07,
1089.00,0.01,
1090.00,0.04,
1091.00,0.10,
1092.00,0.04,
1093.00,0.01,
1094.00,-0.01,
1095.00,-0.06,
1096.00,-0.13,
1097.00,-0.05,
1098.00,-0.02,
1099.00,-0.06,
1100.00,0.00,
